channel,n,mean_delta,median_delta,ci_low,ci_high,p,dz,n_decrease,n_increase,n_equal,p_holm
Fpz,106,-0.006202327694704716,-0.005343088624338632,-0.008410811033445521,-0.0040641212394286865,4.497705446879741e-08,-0.5428912397043772,79,27,0,2.878531486003034e-06
Fp2,106,-0.005892070905056642,-0.005246913580246908,-0.007993595727293365,-0.0038173448144107375,1.1193036828581984e-07,-0.5369506991650254,75,31,0,7.05161320200665e-06
Fp1,106,-0.005866536560466256,-0.004812610229276898,-0.008066201817030098,-0.003744126131409938,1.8716896287856877e-07,-0.5198929118020379,74,32,0,1.1604475698471265e-05
AFz,106,-0.005759789459109989,-0.003918375220458559,-0.00793976348837928,-0.0036604065870757788,7.788774848635838e-07,-0.5129528351416035,74,32,0,4.6732649091815025e-05
AF4,106,-0.005546894683799445,-0.00433972663139329,-0.007703787861231144,-0.003458268655339495,1.1449060648700742e-06,-0.5047888469177478,72,34,0,6.64045517624643e-05
AF3,106,-0.0054738570174750565,-0.004622189153439154,-0.007670287120897456,-0.0033450809869501625,5.718895876449811e-07,-0.48282172935900164,76,30,0,3.4885264846343846e-05
AF7,106,-0.005264562891893304,-0.0038745590828924235,-0.007387400700802682,-0.003245404222791493,8.861410682222866e-07,-0.48684796879939385,75,31,0,5.228232302511491e-05
F4,106,-0.00521373486501519,-0.0036287477954144633,-0.007337375271562156,-0.0031085636003615287,6.918825700432251e-06,-0.47386762668238214,68,38,0,0.00037361658782334155
F2,106,-0.005169174085602098,-0.0030346119929453184,-0.007316459442682561,-0.00309485710230109,1.2782761620604775e-05,-0.464663941335692,67,39,0,0.0006647036042714483
AF8,106,-0.00508812474151086,-0.004805720899470902,-0.007156203334539616,-0.0030896917762125832,2.0833150343586563e-06,-0.4800280793453859,72,34,0,0.0001187489569584434
F1,106,-0.004932817706922043,-0.002382330246913573,-0.0070334226829271195,-0.00289991027529985,7.340693049996143e-06,-0.4519652715548355,68,38,0,0.0003890567316497956
F3,106,-0.004926594283765218,-0.0030291005291005445,-0.0070054595617509785,-0.002878013329720427,1.7512727059337734e-05,-0.4548244887329984,68,38,0,0.0008756363529668867
F6,106,-0.00491580570470676,-0.0036645723104056487,-0.007015801077156929,-0.002852813888264951,6.235762295866217e-06,-0.44716262434858833,70,36,0,0.00034920268856850816
Fz,106,-0.004859667137295171,-0.0026997905643739092,-0.006917431010882689,-0.002890381793659115,6.71668796424559e-06,-0.4570342538693918,70,36,0,0.0003694178380335075
F5,106,-0.004787902975655671,-0.0023939043209876432,-0.0068878653127480895,-0.0027945351904738146,2.9840811291413433e-05,-0.4435470855995104,69,37,0,0.0014621997532792582
F8,106,-0.00469361311960144,-0.0034702932098765477,-0.00680306418077364,-0.002704443071777979,1.562664462647753e-05,-0.43430478466133293,66,40,0,0.000796958875950354
F7,106,-0.003928382018425819,-0.0029279651675485074,-0.005826635084938938,-0.002087200438569908,5.0154473022609256e-05,-0.39921217659585123,70,36,0,0.002357260232062635
FC6,106,-0.0035867641081589884,-0.002214506172839501,-0.005283945399220138,-0.0019498933100930828,3.2419888176430415e-05,-0.409143153595405,68,38,0,0.00155615463246866
FC4,106,-0.003308445211592673,-0.0020563271604938267,-0.00490406819938842,-0.0017431697308771543,0.0002482372809283437,-0.3999689712381078,65,41,0,0.011170677641775466
FC5,106,-0.003248658084827221,-0.0012455908289241632,-0.004947289979059409,-0.001640637293089841,0.000858768890967314,-0.37287952043245515,65,41,0,0.03778583120256182
FC2,106,-0.0032053184437646487,-0.001721505731922389,-0.0048908566746055536,-0.0016129082327156928,0.001099358412749583,-0.3717241483823207,64,42,0,0.04727241174823207
FC3,106,-0.0031992368925208097,-0.0011981922398589112,-0.004884897664298073,-0.0016040609312383246,0.0011881133462759953,-0.36777407162925707,65,41,0,0.0499007605435918
FC1,106,-0.00307361414167344,-0.0007319223985890579,-0.004768112252325809,-0.0014954929113067314,0.002518696579083885,-0.35658012594998845,64,42,0,0.1007478631633554
FT8,106,-0.002979328742328518,-0.001491953262786603,-0.004521223926764975,-0.0015253223723539027,0.00020108158087486208,-0.38211835275313305,69,37,0,0.009249752720243656
FCz,106,-0.002788292640606209,-0.001097608024691354,-0.004457014945871779,-0.0012137697201959055,0.008772468544493983,-0.32582425222070194,59,47,0,0.33335380469077136
FT7,106,-0.0025835428729493208,-0.0009025022045855433,-0.004139027975358558,-0.0011186203506122953,0.006876941306998716,-0.3245435339072774,62,44,0,0.2682007109729499
T8,106,-0.001975159342213475,-0.0006401565255731963,-0.003139650596218572,-0.000875550385029973,0.018471054002010722,-0.3278867656586332,59,47,0,0.6834289980743967
C2,106,-0.0018161257558578997,-0.0004433972663139326,-0.003219668119256788,-0.0004971197401916752,0.13150867563900775,-0.2532371485062507,56,50,0,1.0
C4,106,-0.0017378139454593867,-0.000772707231040554,-0.0030324226159279236,-0.0004996249214876392,0.07417288441467884,-0.25973645345772983,58,48,0,1.0
C6,106,-0.0017111219706261252,-0.0005599647266313979,-0.0029670178163639675,-0.0005084147778389837,0.031963972251442804,-0.2625833327536311,63,43,0,1.0
C3,106,-0.0016253730265691198,-2.8935185185184793e-05,-0.0029635294292856924,-0.0003470928848041669,0.23041364963672395,-0.23432643471713233,54,52,0,1.0
C1,106,-0.0014940479161615731,-0.0004287918871252183,-0.0028505698979888945,-0.00021666734260091075,0.1871471158570479,-0.21534220752033031,57,49,0,1.0
T10,106,-0.0014328654679901303,-0.0007299933862433801,-0.0021986539549432613,-0.000696309168758349,0.001311956443235181,-0.3614512815763501,66,40,0,0.05379021417264242
C5,106,-0.0013922492477074684,0.00015624999999999754,-0.0025376920433180256,-0.00031494613918243763,0.325598066278875,-0.23748926041907464,46,59,1,1.0
Cz,106,-0.0013692288585594968,-0.0005087081128747877,-0.0026858962345857277,-0.00011956379883365083,0.3681923739268578,-0.20232275465399308,57,49,0,1.0
TP8,106,-0.00112026184949871,-0.00011105599647266273,-0.0020690177145281595,-0.00023098038022861163,0.25584935520408003,-0.22917129621665058,55,51,0,1.0
T7,106,-0.0010103426852921457,0.00023065476190475658,-0.00218931551481529,0.00010355451907352778,0.7394933537457409,-0.16700813749798377,48,58,0,1.0
CP4,106,-0.0009713787899855959,0.0002921075837742501,-0.002078885528158679,0.00012212961923064393,0.6420004089519881,-0.16650131123505646,47,59,0,1.0
CP6,106,-0.0009277204942074659,0.0004935515873015946,-0.0019918248167104012,9.985407619546691e-05,0.7064331247296762,-0.1674817901706796,48,58,0,1.0
T9,106,-0.0008252644611303646,0.00022266313932981126,-0.0016809769931295368,-2.0094243803392684e-05,0.7276270580187518,-0.18517193170026067,48,58,0,1.0
CP1,106,-0.0007347802634331168,0.000461309523809514,-0.0018646440652824723,0.0003468193914096043,0.807020597882056,-0.1266559007061161,46,60,0,1.0
CP2,106,-0.0007334941314051813,0.0004701278659612054,-0.0017769426090229906,0.0002753110077451696,0.8660907546091047,-0.13420664092388798,43,63,0,1.0
CP3,106,-0.0007199877024534483,0.00020282186948853125,-0.0018603204630253574,0.00038345107216541344,0.8364403790635138,-0.12192691613283041,49,57,0,1.0
P8,106,-0.000664950685025932,0.00012097663139329275,-0.001550270529682873,0.00018929352838270225,0.8611347369334994,-0.14342299362663746,50,56,0,1.0
P4,106,-0.0005801848167638833,0.0003497023809523924,-0.0015415151756894233,0.00034073167505122107,0.8834770652967282,-0.11596946905112117,48,58,0,1.0
TP7,106,-0.000559615246343122,0.0004982363315696615,-0.001514167479644725,0.00035934926250374283,0.5694130968476725,-0.11305147793015408,44,62,0,1.0
CPz,106,-0.0005536399133378022,0.00038993606701939135,-0.00157968107862467,0.00046252631686846517,0.7778713421755568,-0.1027467799653818,45,61,0,1.0
P6,106,-0.0005185975508302538,0.000435405643738989,-0.0014387018630827567,0.0003767241522744688,0.7778713421755568,-0.10787062269825554,46,60,0,1.0
P1,106,-0.000509257030904605,0.0006611000881834228,-0.0015010548659540688,0.0004403053870919428,0.34840520586634016,-0.09895980089693528,45,61,0,1.0
CP5,106,-0.00046342794630081335,0.0007751873897707245,-0.0014404065543932479,0.0005104082917670904,0.7682217812976788,-0.090545745756677,43,63,0,1.0
P2,106,-0.0004581151774126838,0.0007531415343915385,-0.001478368897130831,0.0005319805196493346,0.5524241243320949,-0.08548121476482977,43,63,0,1.0
Iz,106,-0.0004091923937639341,0.00018132716049382765,-0.0011109134003444135,0.00028541284503843395,0.9610354175454208,-0.11131308612157588,50,56,0,1.0
P3,106,-0.0003448505100852364,0.0008421516754850179,-0.0013834109432120162,0.000669820586996153,0.32774715136562294,-0.06346140586045673,45,61,0,1.0
PO4,106,-0.00028100035000023816,0.0005186287477954256,-0.0011358364236898468,0.0005599378471033752,0.6173747154258011,-0.06295643560453958,47,59,0,1.0
Pz,106,-0.00024293670997399574,0.0007581018518518505,-0.0012228726603761696,0.0007185459569921637,0.1602691802053986,-0.047037409179513955,40,66,0,1.0
PO8,106,-0.00023589882319105206,0.00035080467372133797,-0.0009856459235074184,0.0005067435397027424,0.3451742800421016,-0.05954752430739241,46,60,0,1.0
P7,106,-0.00022860393283798524,0.0005566578483245186,-0.0010899316771607298,0.0006008552016631249,0.2665506651059042,-0.0510357089909934,45,61,0,1.0
POz,106,-0.0001543139311979171,0.0005255180776014045,-0.0009735781667445113,0.0006336547252111877,0.18193354832193032,-0.03640205265616337,38,68,0,1.0
P5,106,-0.00013703304085435755,0.0008352623456790121,-0.0010292085300227709,0.0007379621588983256,0.18296754779386315,-0.02918935795623906,43,63,0,1.0
O1,106,-0.00010311971137162079,0.000579530423280409,-0.0008213045727768753,0.0006039685659379048,0.26384689973798303,-0.027436963505843178,41,65,0,1.0
Oz,106,-6.953209306084405e-05,0.0005709876543209874,-0.0008313373960695385,0.0006808373681408259,0.1593329043788959,-0.017572137473378695,38,68,0,1.0
PO7,106,-5.027465213898378e-05,0.0006572420634920664,-0.0008392181394308254,0.0006978193804163867,0.1457808476680946,-0.012406784003643354,40,66,0,1.0
O2,106,-1.6801794092898836e-05,0.0005864197530864347,-0.0007379753154755948,0.0006849182654368517,0.13976672467238666,-0.00447516491343165,40,66,0,1.0
PO3,106,0.000132647638894833,0.0009995039682539637,-0.0007275817029947872,0.0009798025740913084,0.058817123301267135,0.02941817361799481,38,68,0,1.0
